# repro call number: 0
# mode: 1
# signal: 1
# stimulus file: /extra/setup/oel/stimuli/receptorInfo/gaussModality_co200.dat
# carrier freq (kHz): 3.5
# stimulus length (msec): 1000
# pause between stimuli (msec): 700
# length of ramp (usec): 1000
# desired firing rate (Hz): 100
# standard deviation (dB): -1
# cut-off frequency (Hz): 200
# repetition number: 0
# duration (msec): 1000
# intensity (dB): 65.9091
8500
14300
20400
24400
28200
32400
43900
48100
59600
63700
75000
81200
86400
91900
99600
103900
108200
113900
123500
131400
166200
174100
178800
184600
189300
195400
201400
214100
222100
227800
235100
240500
246600
255600
260700
268700
285000
291900
299600
304900
309800
314300
324000
328400
333300
340300
346000
359300
365800
371600
376100
381500
389500
403000
411300
421100
434500
450300
457000
463100
471600
483100
487900
492700
500800
507100
512900
517700
525400
532600
552100
557300
568000
573200
582400
594800
599700
604600
618600
628200
638200
643800
659400
671500
677800
688700
700200
707900
716600
723400
729100
738500
745600
751500
758300
763300
774000
781700
790300
795200
803600
809600
817500
825700
833900
841700
851400
859100
866100
873200
878900
890900
895600
904600
914100
918900
924700
938000
943600
955600
962200
968900
983500
990100
1000400
1005800
1011700
1017000
1024700
1030500
1039000
1044400
1050400
1063300
1076400
1080900
1087000
1093200
1098300
1104100
1122300
1131300
1145700
1151900
1169800
1175800
1180500
1187500
1193600
1202700
1210900
1220800
1232200
1247500
1258600
1264100
1269800
1278000
1284100
1299500
1315200
1327500
1335500
1340700
1348200
1355900
1361700
1368300
1376800
1383600
1393000
1399700
1409900
1421300
1427400
1433300
1443000
1449800
1469100
1487200
1495500
1502800
1508700
1513200
1517800
1523500
1531600
1548800
1566600
1574600
1581000
1586200
1591800
1598000
1608400
1614400
1621100
1628900
1644500
1653100
1658800
1668100
1675700
1682000
1687200
1701400
1709800
1715400
1720400
1730200
1735700
1742300
1747200
1766000
1771500
1776100
1784000
1793100
1798500
1809700
1825700
1830800
1842200
1849500
1855300
1864000
1874200
1881400
1889200
1899000
1905400
1912100
1922300
1930200
1937700
1942700
1954000
1960300
1965400
1971700
1977600
1983400
1993500
1999400
2006300
2018700
2031300
2046500
2051900
2065500
2071100
2075900
2087400
2094800
2101100
2107900
2112600
2121100
2136100
2147200
2152700
2157200
2164400
2176300
2182000
2189000
2202700
2215200
2227200
2236800
2251000
2256400
2275400
2281300
2287700
2298000
2309500
2317100
2332200
2345000
2352200
2358300
2365800
2371900
2379500
2387500
2393200
2400700
2410500
2422400
2433800
2439100
2443600
2449600
2457000
2470100
2499000
2510400
2515600
2530200
2554700
2572600
2581600
2595900
2601200
2611600
2620400
2625100
2632400
2642000
2648200
2657900
2667700
2683100
2690800
2700100
2706000
2712300
2728600
2737400
2744200
2757000
2762900
2783900
2793100
2801700
2809400
2814500
2825000
2841900
2855100
2862300
2869000
2891000
2898800
2904100
2914100
2933500
2950600
2955500
2966300
2971700
2981100
2993000
3009700
3017300
3024100
3033300
3053100
3061600
3072700
3079600
3087800
3094300
3099900
3105100
3111300
3121100
3131300
3141200
3166900
3177000
3190200
3200500
3206800
3215700
3221800
3226600
3237500
3248600
3257500
3263600
3275500
3280400
3289200
3297800
3305700
3320300
3325700
3330200
3336900
3361800
3367700
3378500
3399200
3405100
3410300
3416400
3421900
3430300
3436300
3444600
3454400
3465900
3483200
3495200
3504600
3512800
3519800
3526600
3534500
3541600
3553100
3560900
3568500
3575100
3581400
3592100
3604700
3610900
3626100
3635200
3642300
3655400
3667600
3673800
3679100
3683900
3704200
3714000
3726800
3733800
3740500
3752900
3768300
3774000
3788000
3795600
3801000
3820700
3826700
3840600
3850900
3856000
3865100
3873400
3881200
3902200
3909900
3917000
3925500
3933300
3940400
3946300
3956300
3962200
3968500
3981700
3988100
3995500
4002200
4007600
4012200
4019300
4025200
4041100
4050000
4057700
4064600
4073800
4093900
4100100
4131000
4144100
4149200
4165200
4170800
4180700
4188000
4200800
4216000
4224000
4231100
4237700
4242300
4253500
4261900
4272200
4294400
4302800
4312700
4318600
4325400
4338400
4347800
4357900
4364100
4370200
4383300
4400500
4409100
4420000
4427200
4434800
4445800
4451200
4462500
4475700
4482300
4490700
4502200
4509200
4518400
4525800
4535600
4549800
4566600
4577600
4590700
4596000
4602000
4608000
4612900
4622700
4630300
4636500
4664200
4670900
4688900
4694200
4704700
4711300
4719100
4724400
4729400
4735700
4745800
4751800
4760900
4768400
4796300
4802000
4818200
4828200
4838600
4847800
4853900
4862200
4880500
4892200
4897500
4902400
4913400
4926800
4933700
4941400
4948600
4955000
4965000
4982700
4988100
4995200
5000900
5007500
5016000
5024100
5032200
5044300
5049800
5068600
5077000
5086200
5093900
5101200
5114500
5119800
5131900
5138000
5142700
5147300
5163700
5181200
5193900
5199100
5227500
5233400
5257900
5268200
5277700
5289200
5298000
5303900
5310300
5321100
5326000
5333000
5351400
5361800
5371300
5385600
5394700
5406000
5412300
5422000
5434800
5447100
5456900
5462600
5468700
5474400
5480900
5485900
5500800
5509600
5517900
5530100
5535500
5547200
5559300
5567500
5573300
5579000
5592000
5605400
5612900
5622600
5632300
5641500
5648800
5654600
5668000
5672900
5686600
5696000
5701800
5712300
5719000
5731900
5743300
5749900
5760000
5772200
5780600
5787000
5792400
5800500
5816600
5822900
5829700
5836700
5866400
5874700
5902200
5907800
5913800
5920200
5928200
5936200
5944500
5952000
5970600
5982400
5997500
6008700
6017700
6032400
6038200
6050100
6061200
6072300
6090700
6108600
6115800
6128300
6134900
6143800
6155200
6160500
6172000
6179700
6190600
6197800
6206300
6212900
6218300
6223800
6242600
6253300
6261600
6270400
6293200
6305500
6312900
6324900
6330600
6335300
6343400
6350700
6365200
6372400
6378800
6384500
6397200
6404300
6409300
6423400
6431600
6441500
6452700
6463300
6475700
6489000
6504300
6511500
6517500
6527700
6543800
6554700
6574900
6589600
6598700
6610100
6625300
6638200
6645600
6655100
6661500
6671500
6681700
6690600
6697000
6703800
6709500
6719000
6730800
6738800
6744800
6754900
6771400
6779500
6800800
6810900
6822000
6829800
6836500
6848000
6857800
6863900
6873000
6886800
6903900
6928100
6939300
6945900
6953100
6962100
6972700
6985100
6990600
7014100
7022500
7031900
7042000
7047600
7058900
7071800
7077200
7083200
7090900
7101600
7117000
7124900
7134700
7141800
7160000
7169800
7183600
7195800
7205500
7211100
7223900
7229500
7234200
7248500
7253800
7263100
7270700
7277100
7283600
7295000
7314600
7324300
7332200
7343200
7357700
7363400
7378500
7388900
7398100
7409000
7436600
7445100
7463500
7473700
7493100
7499800
7504700
7512200
7517400
7527600
7533000
7543900
7559100
7583800
7588900
7595700
7605800
7630700
7635900
7648000
7656700
7661900
7667500
7673300
7685000
7691200
7711300
7718900
7724400
7736000
7747500
7753500
7760800
7771000
7777600
7784800
7791000
7802400
7819800
7825500
7835200
7842400
7859400
7865300
7874000
7881000
7891200
7901400
7908000
7913300
7919200
7945800
7954200
7963100
7970400
7976300
7981300
8000100
8010700
8020000
8032000
8041600
8050900
8063100
8074300
8081500
8091900
8097200
8107300
8118100
8128400
8145900
8159200
8166000
8171100
8176600
8187800
8195600
8207600
8213000
8227900
8235500
8245200
8251200
8258800
8277800
8291400
8301200
8311500
8317900
8329800
8340800
8347400
8356100
8361800
8369500
8381100
8395300
8402800
8410600
8416200
8430700
8437100
8446100
8452500
8459400
8473400
8480000
8487900
8494300
8500500
8509400
8522900
8528100
8534000
8542300
8551900
8563800
8572700
8580000
8585000
8597500
8606900
8614500
8623500
8649700
8660400
8666800
8677800
8694400
8702200
8713000
8722600
8734100
8740000
8751500
8759800
8773400
8781300
8793100
8807300
8819200
8824800
8833700
8845800
8861300
8869000
8876000
8886800
8900500
8907100
8922100
8927600
8939500
8945000
8950300
8959400
8972700
8991200
8997600
9016800
9025200
9031300
9038700
9048800
9073300
9088400
9105400
9112500
9121700
9134200
9145500
9162000
9168400
9177700
9187100
9199500
9208300
9214500
9224700
9232700
9247000
9253200
9266300
9282700
9289100
9299600
9306300
9321000
9327700
9337000
9346700
9357000
9365800
9375800
9383100
9391300
9401600
9411700
9420100
9429500
9436800
9445600
9453400
9474800
9484000
9494800
9501300
9509400
9516400
9523900
9535200
9559200
9565400
9576300
9582400
9588200
9611900
9624500
9637300
9643900
9649300
9656400
9683600
9692100
9712200
9720600
9733600
9747700
9768500
9775000
9780200
9787500
9801800
9807300
9822200
9844600
9854500
9868300
9878900
9886600
9894800
9901700
9911000
9918500
9930000
9945600
9951600
9975500
9983300
9993200
10009600


