# repro call number: 0
# mode: 1
# signal: 1
# stimulus file: /extra/setup/oel/stimuli/receptorInfo/gaussModality_co200.dat
# carrier freq (kHz): 5
# stimulus length (msec): 1000
# pause between stimuli (msec): 700
# length of ramp (usec): 1000
# desired firing rate (Hz): 100
# standard deviation (dB): -1
# cut-off frequency (Hz): 200
# repetition number: 0
# duration (msec): 1000
# intensity (dB): 59.8333
6700
12400
20700
23500
27200
34300
41900
46100
56400
59700
63900
78200
84200
87700
95000
98500
101700
105600
108700
121500
129500
138700
155200
164900
173100
181400
186600
197200
215200
224300
232700
236600
252700
257600
264800
269600
284200
291200
300000
306200
311200
321400
327100
339500
346100
356900
364400
371100
374000
380600
393500
402200
407800
414500
419100
431300
450300
454500
461700
465600
473700
485500
491200
506100
511000
524400
531100
550000
553700
567900
571000
587300
593000
596400
615200
631300
637000
641400
667500
687600
703400
706400
710400
715700
726600
741400
748000
756400
760500
765400
772800
782300
792700
801400
816700
824700
833300
841000
857100
864600
869400
875100
890000
893000
901800
905700
912800
920700
934800
960000
966700
981900
988000
998000
1002300
1008000
1011400
1017900
1022900
1025800
1031100
1042000
1047800
1060000
1070000
1076300
1083100
1091000
1096100
1099100
1128500
1143500
1147100
1155000
1172700
1177100
1185600
1193500
1202200
1214900
1218400
1221200
1247600
1256900
1263500
1267700
1281100
1296700
1315000
1326300
1334700
1339400
1346000
1354400
1358400
1366400
1374700
1381100
1399100
1409400
1419400
1423300
1428700
1432200
1440500
1447600
1466900
1485900
1493000
1498800
1506400
1509800
1514300
1523000
1529700
1540200
1547700
1570600
1576800
1581000
1595800
1599500
1605700
1614800
1619800
1625800
1641800
1652600
1656500
1663800
1668900
1680200
1687200
1699900
1706600
1716400
1726300
1732800
1740700
1748000
1760300
1764600
1769000
1773000
1804100
1813400
1822800
1826300
1831100
1840200
1850000
1858500
1871800
1881000
1903100
1910600
1920000
1930200
1936900
1941500
1951800
1959000
1962700
1969500
1975300
1978100
1983700
1989500
1993100
2002900
2015900
2020300
2029100
2048700
2064600
2071800
2076200
2086400
2092600
2097200
2105600
2108800
2140200
2145000
2149700
2152600
2162400
2174500
2180100
2201100
2207800
2213500
2245600
2249800
2267200
2273400
2278600
2284600
2298300
2308300
2324600
2329000
2339400
2348000
2354100
2363600
2370000
2385800
2392800
2398200
2407300
2422200
2430100
2432900
2439500
2447100
2454400
2462400
2467600
2478500
2497800
2508200
2512600
2528900
2551600
2563900
2570600
2577400
2583100
2595800
2600300
2606300
2618100
2644000
2655000
2665700
2672600
2679900
2688300
2698200
2709300
2712700
2721200
2727500
2741200
2755000
2760300
2778200
2782600
2790700
2800800
2806100
2811200
2829900
2839500
2846200
2849500
2855800
2867000
2884800
2890300
2894200
2900200
2904000
2912900
2934800
2949700
2957200
2967000
2971400
2978300
2991200
3008400
3014600
3026600
3049900
3058100
3070700
3084700
3096700
3101800
3107200
3110900
3117500
3122300
3132800
3139100
3143100
3166300
3176500
3187300
3193200
3202900
3206600
3217200
3227600
3233400
3241200
3256700
3268800
3273800
3277500
3287300
3298400
3310300
3318000
3326700
3333500
3363200
3366600
3376000
3401600
3411900
3417400
3423200
3428600
3438200
3443500
3450800
3462900
3480100
3493500
3496900
3511100
3516600
3523500
3537900
3548700
3555900
3566600
3572600
3579600
3590000
3598800
3609200
3615900
3624600
3632200
3637300
3641000
3658800
3669000
3672900
3676900
3681100
3701100
3712500
3725800
3732500
3738400
3750900
3768200
3772200
3786300
3792100
3798300
3804400
3818900
3824800
3843200
3851900
3855200
3861900
3871000
3878400
3889400
3901000
3906400
3924600
3936600
3940000
3953800
3960100
3969800
3984800
3993700
4004000
4016500
4023100
4027100
4038400
4055100
4066100
4085700
4092000
4097200
4114300
4122500
4128500
4138900
4148400
4163200
4168300
4177700
4186000
4207300
4214200
4222200
4230200
4235200
4250900
4260800
4270100
4273200
4286800
4291900
4310600
4316200
4321200
4334700
4351300
4365500
4380500
4394600
4402400
4412400
4418500
4422700
4426500
4437900
4443400
4448800
4460400
4474100
4489200
4500000
4505600
4511000
4515400
4533100
4547900
4565000
4576400
4582300
4593000
4598300
4604800
4610300
4621100
4627100
4632600
4646800
4662200
4669400
4680800
4687100
4702500
4708900
4714500
4720300
4726200
4733600
4743400
4749200
4759100
4762700
4767300
4794500
4798600
4802100
4806400
4815600
4826900
4834000
4845600
4851200
4859000
4877900
4886700
4890800
4898000
4907100
4924900
4930000
4938800
4942000
4948400
4962300
4981100
4984000
4988600
4993400
5004500
5013400
5019100
5029700
5044500
5054900
5070700
5082200
5090400
5098100
5112700
5116300
5129700
5133900
5139000
5142900
5149500
5174900
5181200
5195400
5199600
5226400
5231700
5235800
5244700
5256400
5260900
5267800
5275100
5290300
5296500
5301200
5307100
5317900
5322200
5329500
5337200
5348500
5369800
5391200
5397800
5402700
5414100
5420200
5425600
5446600
5453600
5462000
5466800
5477400
5486200
5491400
5499600
5507000
5515100
5528300
5532900
5544600
5557200
5563500
5567400
5570700
5580300
5587700
5592200
5603300
5619400
5637100
5643500
5647800
5651500
5660400
5668300
5675700
5683000
5686500
5694500
5699500
5710200
5716200
5740400
5757200
5770900
5784600
5797800
5812200
5818800
5826200
5835600
5866500
5871900
5888400
5910600
5918400
5925100
5933800
5942500
5947600
5951800
5970800
5995600
5998400
6003700
6014500
6034300
6046800
6051500
6059800
6065500
6076400
6089800
6096300
6101700
6109400
6114600
6140400
6153700
6157800
6170100
6175500
6188200
6195300
6204200
6209900
6215900
6221500
6252300
6260900
6277700
6291200
6302800
6311400
6320500
6325500
6331800
6348000
6355400
6361500
6373900
6379800
6394900
6401500
6406000
6418200
6423400
6429200
6438100
6461800
6500900
6508000
6516800
6526700
6543500
6551200
6586900
6590300
6597800
6608400
6623600
6636800
6643800
6650400
6653600
6658200
6669200
6678600
6689900
6695000
6715200
6721100
6728300
6736500
6753100
6769200
6777300
6799300
6819500
6826900
6834200
6838700
6841800
6846200
6860100
6870600
6882500
6892700
6899100
6925800
6936800
6941800
6949800
6957600
6962000
6970800
6975600
6983200
6987100
6999300
7015100
7020600
7024200
7030200
7037200
7043000
7053700
7074000
7079700
7083900
7098400
7103400
7115300
7123200
7127600
7132700
7139700
7158500
7166800
7180000
7193500
7202300
7206600
7224800
7228800
7246300
7253200
7260200
7263700
7269400
7279700
7286100
7292300
7315300
7320900
7328700
7338100
7342000
7353400
7378400
7395100
7406200
7425400
7435600
7443200
7454400
7462900
7470400
7490700
7495700
7500700
7510400
7524000
7528100
7536700
7557400
7563900
7580500
7583700
7593400
7603200
7614000
7628800
7633700
7650300
7654600
7658300
7669900
7682300
7688500
7704100
7715100
7734400
7744800
7751300
7758800
7762500
7769300
7773000
7777300
7783700
7789800
7800800
7816600
7821000
7834200
7843800
7851700
7860600
7870500
7878400
7888200
7900100
7905500
7910500
7915300
7943600
7961300
7970900
7974600
8000500
8007600
8039200
8050200
8060900
8068000
8074100
8079400
8088600
8093300
8105300
8116300
8126800
8141200
8147700
8161000
8163900
8167900
8184800
8193400
8206300
8227900
8233800
8245200
8250500
8256600
8274900
8281800
8290500
8300600
8315000
8336300
8344300
8353100
8358600
8366600
8378700
8392600
8399500
8406800
8419700
8427500
8433500
8443700
8461300
8469800
8476700
8485100
8491000
8505300
8520000
8526200
8530500
8535000
8539900
8548000
8560000
8575800
8579800
8584100
8594100
8610000
8620500
8634300
8647200
8663100
8674400
8683100
8699900
8704100
8712400
8720000
8731300
8737200
8750600
8758000
8768900
8778300
8791000
8805700
8815500
8821700
8825800
8831000
8843500
8858300
8866300
8871500
8876200
8884800
8896800
8903300
8909100
8919600
8927100
8938600
8946600
8970000
8973100
9000700
9011300
9016100
9025100
9033600
9041200
9046800
9065600
9072100
9077400
9086100
9089300
9102200
9108000
9119000
9131900
9135200
9143300
9160000
9175500
9181700
9195600
9205300
9212200
9223200
9229600
9232700
9243500
9249800
9253800
9264900
9279800
9283500
9297700
9303900
9317700
9324700
9331200
9334500
9340200
9345700
9353900
9369300
9380400
9386400
9391000
9408800
9412300
9417800
9427000
9432900
9443800
9454900
9472700
9480300
9483700
9498800
9506800
9513700
9519800
9532400
9553600
9560600
9567600
9574200
9579500
9584000
9610300
9622400
9625000
9630100
9636600
9639900
9645400
9653200
9681700
9691900
9709600
9713700
9725300
9732300
9745100
9756700
9766700
9770800
9776100
9780400
9788300
9803000
9816000
9821100
9841400
9851600
9865000
9876300
9882900
9897400
9901800
9910200
9918200
9928400
9943800
9949000
9953900
9960100
9967300
9974300
9985200
9990100
10003000


