# repro call number: 0
# mode: 2
# signal: 2
# stimulus file: /extra/setup/oel/stimuli/receptorInfo/gauss_st3_co200.dat
# carrier freq (kHz): 5
# stimulus length (msec): 1000
# pause between stimuli (msec): 700
# length of ramp (usec): 1000
# desired firing rate (Hz): 100
# standard deviation (dB): 3
# cut-off frequency (Hz): 200
# repetition number: 0
# duration (msec): 1000
# intensity (dB): 83.2857
8100
11300
15300
18600
24900
29000
32700
36800
43100
50200
55700
72500
77400
83000
89500
93500
105900
110400
121500
128700
140200
150700
167000
170800
183100
190500
195700
207600
214400
222400
229600
237700
249900
258100
274300
280000
286900
293900
298300
307100
312900
322200
333800
339500
357200
368500
376700
382400
393900
400300
407700
414200
423500
432600
457300
464100
485700
492500
503900
512500
524900
555200
561200
571600
587100
592500
601800
607900
614200
620700
629800
639600
644300
649500
658100
664200
676800
708300
718500
735300
744400
754600
764400
772300
782900
787600
794700
802900
810200
822300
829900
842000
847800
862900
876200
885900
912400
922700
946100
958200
962700
979800
987800
996500
1002200
1014300
1028200
1037600
1048400
1063800
1069900
1087500
1099900
1111900
1117000
1126700
1142600
1150200
1163200
1169500
1177900
1184100
1193100
1198600
1214400
1225700
1243500
1260100
1272700
1277100
1287000
1303500
1311200
1326700
1352500
1357100
1371600
1379700
1390000
1397200
1408300
1414500
1421900
1453700
1463800
1494800
1503200
1511800
1516100
1528200
1534200
1546900
1558600
1567400
1604000
1614300
1621700
1637300
1646700
1663500
1670400
1684700
1696600
1702600
1719700
1741200
1748000
1754700
1769400
1776300
1781800
1798800
1804700
1812100
1829700
1846800
1869100
1874700
1886600
1892300
1900800
1914000
1918100
1927100
1933300
1940200
1960400
1976600
1999700
2016300
2024100
2030700
2039000
2062800
2075100
2081000
2088600
2117100
2133400
2144200
2159900
2167400
2178100
2184900
2190000
2200100
2210900
2227200
2238800
2249600
2257100
2268400
2293900
2309900
2321900
2337700
2347100
2356700
2384400
2393500
2411700
2418400
2432600
2437200
2452900
2464300
2504000
2512100
2516900
2545300
2551700
2564900
2578000
2593500
2599300
2615000
2633100
2638300
2653900
2666600
2678900
2699800
2704500
2719800
2725500
2745700
2760700
2773800
2782700
2794500
2815200
2833200
2841400
2853800
2869300
2887100
2894800
2914000
2927000
2939300
2954500
2974900
2996200
3002100
3009100
3019600
3033200
3039800
3045500
3055600
3070100
3076700
3086800
3109300
3125000
3138400
3143700
3155400
3169800
3177400
3184300
3204700
3218500
3224200
3258100
3271600
3292000
3311400
3336400
3343600
3359400
3368700
3400400
3405800
3412400
3419300
3427400
3434900
3449100
3465600
3488800
3507300
3515900
3521100
3528800
3536200
3557900
3567700
3576000
3583000
3596600
3603100
3616600
3625900
3650700
3664200
3674900
3688200
3692900
3698700
3709600
3721600
3733000
3747200
3756800
3771900
3778000
3809400
3817500
3841200
3856300
3871600
3885800
3894300
3904300
3925000
3956700
3964100
3971700
3983200
3992900
4001900
4010000
4031500
4045200
4060600
4070200
4083100
4116200
4127200
4150900
4160100
4175800
4189500
4203000
4207500
4223500
4229700
4237200
4248800
4272400
4285600
4294200
4304200
4324400
4333200
4337700
4345900
4360500
4365800
4377000
4387900
4397500
4411200
4429400
4445400
4450500
4457200
4470900
4487300
4501000
4511200
4524600
4535100
4541700
4555000
4561700
4571200
4590600
4597400
4603700
4612600
4625000
4632100
4638300
4654200
4661800
4712600
4720200
4732500
4740300
4747400
4753100
4773100
4786200
4812900
4818100
4829700
4843700
4848500
4861800
4875800
4894300
4904400
4911300
4924100
4929600
4953200
4961300
4982600
4991700
5010000
5024400
5035200
5048800
5061500
5069900
5096400
5102300
5131900
5160500
5170600
5186300
5211400
5219200
5226900
5249300
5254700
5266200
5276200
5289700
5296200
5316900
5327200
5338100
5347000
5359400
5379600
5386500
5394000
5401100
5407100
5416700
5426900
5434000
5443400
5453700
5469900
5475000
5489000
5510000
5515600
5532100
5555600
5575200
5582600
5595600
5609000
5619400
5640900
5647000
5664400
5669500
5674600
5683600
5708300
5714900
5735100
5749700
5757000
5765700
5770400
5790100
5808600
5830000
5843100
5851100
5858600
5877700
5893600
5899000
5903700
5913500
5937000
5946200
5957500
5970500
5977600
6003000
6028600
6050400
6061800
6068500
6085400
6090700
6098200
6111000
6135700
6143300
6165700
6173400
6183600
6198900
6206200
6218800
6226100
6244100
6256100
6267000
6283300
6289500
6303400
6326400
6331200
6335900
6346700
6366200
6381600
6393000
6411200
6424400
6434300
6442400
6455300
6469400
6476600
6493700
6501800
6511900
6532200
6542100
6565400
6574700
6584800
6593800
6603900
6610400
6618300
6634600
6640600
6651000
6659800
6671400
6686800
6709600
6719400
6748400
6753900
6762100
6805700
6816600
6821700
6828800
6838700
6871500
6891900
6902000
6913700
6922800
6940700
6953700
6964300
6972000
6983800
6992600
7004800
7016000
7036000
7079700
7085200
7093900
7106100
7115300
7124400
7139700
7154400
7163500
7182400
7189700
7201700
7219000
7224200
7254100
7271100
7289300
7294800
7299500
7311700
7326000
7331000
7336100
7347700
7354400
7383000
7387900
7429400
7448000
7458600
7466600
7472200
7478500
7493300
7511500
7532500
7537900
7549400
7557500
7567100
7596100
7604500
7617100
7624900
7641000
7653100
7670800
7678000
7691800
7708600
7735000
7741900
7752100
7770300
7788200
7799500
7805800
7816600
7824500
7832000
7840300
7861800
7869900
7890700
7903100
7909500
7920700
7957500
7965900
7984100
8001000
8018300
8025100
8033200
8051000
8057300
8084100
8094500
8104900
8115900
8129100
8147600
8154900
8163800
8174800
8185100
8198200
8223100
8232700
8245800
8259600
8267600
8276600
8282500
8297000
8305000
8314800
8327900
8351100
8379000
8387000
8414400
8429200
8443700
8459100
8464300
8470500
8479200
8488100
8499900
8514500
8523900
8528800
8546400
8556900
8570300
8576400
8597800
8614200
8619500
8634200
8642300
8662000
8669600
8695500
8705700
8717900
8734900
8764100
8777000
8784100
8810400
8826200
8835100
8845500
8874600
8880100
8893400
8904100
8912300
8929000
8936600
8956900
8965200
8991700
9004300
9009300
9014000
9043400
9048600
9056200
9062400
9069100
9081100
9087000
9108100
9122900
9132700
9156400
9162200
9169900
9199800
9221700
9233000
9241000
9262500
9277300
9288400
9305300
9322200
9333700
9346300
9354800
9368500
9377900
9391300
9399800
9406000
9431400
9443700
9451600
9474100
9484000
9504400
9516300
9523100
9535300
9548400
9562200
9589400
9604800
9611800
9616700
9624600
9630600
9654200
9664600
9681100
9697600
9704700
9712400
9742400
9750600
9759600
9777600
9782700
9791600
9803000
9810000
9829100
9844600
9853700
9862500
9886100
9901200
9905800
9925100
9937000
9959400
9967600
9981500
9986600


