# repro call number: 0
# mode: 3
# signal: 1
# stimulus file: /extra/setup/oel/stimuli/receptorInfo/gauss_st6_co200.dat
# carrier freq (kHz): 5
# stimulus length (msec): 1000
# pause between stimuli (msec): 700
# length of ramp (usec): 1000
# desired firing rate (Hz): 100
# standard deviation (dB): 6
# cut-off frequency (Hz): 200
# repetition number: 0
# duration (msec): 1000
# intensity (dB): 91.0526
6900
10000
13100
16100
19600
25000
28200
31200
37400
41400
46500
50000
53400
60100
64000
68700
76000
80500
84000
88300
93800
105000
129500
135800
146300
149700
156300
172900
182700
188700
198800
203200
209900
214100
217700
221500
228800
239400
245700
256500
260700
269400
286000
299500
303400
306900
312500
334300
337900
343900
352900
362300
369500
373200
385100
389800
397600
401200
405100
414100
419300
428200
435000
457000
462100
465800
474300
480700
484400
489700
497400
504500
530100
538200
548900
555200
559000
564100
584200
588100
591900
597100
606700
612000
616000
623000
628200
632700
654800
660600
672000
679000
683800
690300
694900
705600
716500
720600
725200
730400
741300
759400
771000
791400
795400
801700
805900
814200
824200
830100
836000
845500
850400
858100
865400
884200
894100
901600
906000
920300
926000
930400
937600
958400
967800
972900
979500
987400
1003400
1016400
1025400
1031000
1057000
1067100
1072900
1081300
1088600
1096000
1115000
1127300
1135500
1144800
1152900
1160600
1178200
1186100
1192800
1199400
1212000
1224700
1235500
1240900
1245800
1252200
1257200
1269300
1275300
1286200
1291600
1297400
1304700
1312500
1339300
1345300
1358400
1366500
1379700
1385700
1393200
1400400
1412300
1421700
1431800
1452000
1466500
1478800
1488800
1501400
1513100
1532600
1544000
1549600
1581500
1588500
1594300
1611700
1618200
1628700
1638300
1657700
1663100
1671300
1679700
1685300
1693700
1700200
1706300
1722600
1734300
1744300
1757700
1770900
1781400
1788300
1808900
1815700
1827900
1834700
1841600
1856700
1870200
1878700
1891500
1900800
1915200
1935900
1951500
1961900
1971300
2002600
2017600
2025000
2032300
2052300
2058500
2068800
2080200
2089500
2101200
2116700
2136200
2171800
2183100
2200300
2213400
2236100
2243800
2258200
2266400
2279100
2295000
2304200
2316700
2328800
2341500
2347700
2358000
2372300
2385100
2393300
2401900
2415000
2426100
2435400
2443300
2455700
2481900
2493800
2512800
2523500
2563900
2579400
2589400
2614400
2625500
2639800
2650700
2659200
2677300
2692600
2699200
2706700
2715300
2726100
2740700
2751400
2763800
2770300
2777700
2797600
2811000
2818100
2839000
2849800
2861100
2868300
2879200
2888000
2898400
2905700
2915600
2932300
2948900
2958700
2969600
2983100
2999800
3008800
3016200
3027900
3039400
3056200
3063700
3090800
3102900
3114700
3134800
3154000
3165700
3189100
3201400
3212700
3231500
3245000
3262900
3272900
3291300
3340000
3352000
3362500
3369900
3376900
3386300
3393600
3400400
3424300
3432000
3451700
3471000
3478300
3494800
3507900
3538900
3555100
3571800
3581200
3588600
3597200
3612000
3621900
3634700
3643300
3651100
3663900
3674500
3687500
3713600
3725100
3746700
3757100
3772400
3780400
3788000
3804600
3820700
3837200
3844700
3863200
3879700
3901000
3917800
3934200
3957400
3975600
3986700
4006700
4019800
4045300
4052900
4060700
4075200
4086500
4100100
4122900
4133700
4165500
4177400
4188800
4204500
4218700
4225900
4235300
4251500
4265900
4282600
4294700
4306000
4316100
4323600
4333300
4350300
4373500
4393900
4402100
4427500
4442000
4455500
4466100
4477500
4486700
4503700
4525000
4536200
4546800
4558700
4588900
4601600
4612500
4641800
4652400
4665500
4673900
4686800
4700500
4712200
4730100
4741600
4762200
4779500
4794900
4804200
4823700
4835800
4852000
4873700
4884100
4896000
4910400
4926100
4968400
4977200
4989700
4997900
5019700
5033900
5059300
5074900
5086000
5112200
5134700
5153100
5163600
5173900
5184100
5207900
5225100
5238700
5258400
5278200
5287000
5295500
5326900
5334600
5349100
5365300
5373500
5388700
5397900
5422100
5430000
5451000
5461300
5471100
5498400
5513700
5530400
5541800
5562100
5569700
5636600
5645700
5662600
5680700
5690200
5706500
5731600
5752900
5764800
5772500
5787700
5802500
5810100
5819600
5829300
5844400
5863500
5871100
5886400
5899900
5917700
5940200
5962800
5992900
6009100
6031300
6055000
6066500
6075200
6096100
6110100
6122200
6149600
6163600
6173300
6184300
6191900
6200800
6221800
6249000
6256300
6270300
6297800
6307400
6315200
6331300
6348600
6374600
6388700
6403000
6418700
6427000
6439100
6454900
6468400
6479800
6506200
6525800
6537500
6546500
6558200
6572500
6579900
6600100
6615000
6635800
6645600
6657600
6679000
6689800
6711300
6722500
6729800
6755500
6766500
6778900
6790300
6805900
6834600
6853200
6865000
6873700
6896700
6910300
6921600
6932800
6962800
6982700
6991500
7002700
7018900
7030600
7065600
7077900
7104700
7120800
7129700
7143300
7154800
7173500
7194500
7205200
7232000
7245600
7252600
7303000
7316800
7325000
7343500
7350800
7364200
7373700
7390900
7400600
7421500
7431100
7451500
7467400
7482300
7490000
7505000
7516400
7527500
7535600
7543300
7554400
7566500
7578900
7593800
7601800
7622100
7631100
7642700
7650300
7662700
7674300
7684800
7703200
7715900
7723600
7748000
7756200
7787300
7819700
7831000
7840900
7857200
7874100
7902900
7913900
7924100
7934200
7945800
7953800
7962100
7969400
7982800
8015500
8025300
8048700
8076500
8085200
8104500
8116100
8130900
8139400
8154200
8161800
8173100
8198700
8208000
8215900
8230500
8248400
8264300
8275800
8289700
8296800
8306700
8327100
8349000
8360500
8370600
8388100
8398100
8414900
8445000
8460000
8480200
8499600
8519800
8526900
8548600
8558500
8570700
8592800
8599800
8615500
8622600
8639900
8660800
8668800
8676600
8694300
8702900
8715800
8725800
8733800
8746300
8763900
8775200
8783500
8797300
8818400
8825800
8834700
8842100
8862800
8869700
8890900
8921000
8931400
8947200
8965400
8972400
8980200
8999100
9006500
9020000
9041200
9050500
9063000
9084000
9111500
9118900
9137500
9151100
9179500
9197800
9209000
9216200
9237100
9251000
9259700
9277600
9288600
9300500
9340800
9350500
9370100
9389400
9399800
9410000
9431300
9439900
9452700
9464400
9478500
9494300
9502300
9518900
9535100
9564300
9579900
9589200
9599800
9614000
9621100
9631000
9646600
9666100
9687400
9694400
9705300
9713900
9723200
9731200
9740900
9750700
9759900
9768900
9781300
9796000
9810200
9824600
9849600
9861200
9876100
9913600
9924900
9936700
9946700
9957700
9966100
9978900
10000500


