# repro call number: 0
# mode: 2
# signal: 2
# stimulus file: /extra/setup/oel/stimuli/receptorInfo/gauss_st3_co200.dat
# carrier freq (kHz): 5
# stimulus length (msec): 1000
# pause between stimuli (msec): 700
# length of ramp (usec): 1000
# desired firing rate (Hz): 100
# standard deviation (dB): 3
# cut-off frequency (Hz): 200
# repetition number: 0
# duration (msec): 1000
# intensity (dB): 67.8571
7500
10900
16800
25100
29900
35700
42400
50000
55300
59400
71200
77300
81500
85400
90600
102500
106900
111600
116800
127100
135300
149100
160300
166700
181900
185400
194400
199500
207800
212200
220400
226300
235800
246300
250400
256900
269900
276300
282800
290100
295300
304200
308000
312500
321100
331800
338200
342200
348400
355800
367900
376600
382900
390700
396500
401500
406600
412000
416200
422200
430600
448600
457700
464700
475200
481100
486500
491900
502200
509600
514400
524100
535100
547900
553700
557200
561800
571100
587600
591600
597500
606300
614500
620100
626800
633400
640400
648400
653900
659000
662700
672300
686900
696100
701600
711400
719000
730900
738500
747100
751800
757800
763900
781400
786100
794000
804200
812100
817400
827600
838500
843000
847900
854300
863600
868000
874600
886000
909900
918600
923600
941900
952700
959100
963100
975700
981000
988800
995300
1000400
1012800
1020500
1030800
1036900
1047000
1056700
1067700
1078200
1085100
1090800
1108600
1116300
1126100
1133600
1141900
1158200
1165100
1169900
1177200
1184700
1189000
1194900
1198800
1213400
1219900
1225300
1241500
1248900
1258300
1271600
1283600
1288400
1302200
1307000
1312800
1325400
1331400
1346900
1352100
1361100
1372900
1379100
1390100
1396700
1403300
1414000
1421100
1427600
1442000
1447600
1452900
1462500
1472600
1493500
1503500
1511300
1515200
1526600
1533300
1546000
1556900
1570400
1576800
1585500
1598300
1610000
1616300
1620600
1630900
1641500
1645900
1658400
1663700
1670100
1681200
1685800
1691000
1696000
1700500
1716500
1721200
1727600
1737500
1746600
1768100
1775500
1779800
1791200
1798700
1805500
1811300
1830700
1845500
1851100
1868900
1873400
1885900
1892200
1898800
1912800
1916700
1928000
1932800
1939400
1949400
1954600
1960300
1970300
1976700
1997600
2014700
2020900
2029600
2038300
2051300
2055800
2063100
2079900
2088000
2092200
2105000
2116200
2127000
2133000
2144200
2153700
2166700
2176500
2183300
2187300
2199900
2205000
2209900
2214400
2226200
2238500
2248800
2256700
2263200
2268700
2279600
2289900
2295900
2307000
2320800
2328400
2336700
2345300
2350500
2356700
2377200
2386400
2392700
2399100
2410600
2415600
2430500
2436200
2442800
2451400
2461600
2482600
2505400
2511600
2515800
2525200
2538500
2545000
2551500
2561000
2566500
2576200
2584100
2592100
2596900
2601200
2613400
2622200
2631400
2638000
2651800
2664500
2674300
2680000
2686100
2695700
2702100
2719000
2730000
2742900
2749100
2758300
2773400
2780400
2793300
2809600
2820900
2836800
2850700
2857200
2868100
2872800
2882600
2888800
2893500
2906500
2913600
2924400
2938200
2945300
2953600
2973300
2985800
2995300
3002100
3010200
3018900
3033800
3040300
3053800
3059600
3068700
3081900
3091800
3102700
3109800
3120300
3131300
3136600
3140800
3156100
3161900
3168700
3173200
3179000
3184400
3203100
3214700
3220000
3233700
3244400
3256000
3260200
3265400
3270500
3291000
3305200
3321600
3335000
3346100
3357800
3364800
3370900
3394100
3401100
3405900
3413200
3418900
3424300
3433800
3438100
3448300
3464600
3471100
3479500
3489200
3494800
3508200
3515000
3519400
3527100
3541500
3557700
3562900
3567900
3580400
3585400
3596500
3601800
3614000
3619200
3624300
3633000
3643800
3659000
3670200
3685000
3690500
3696900
3708900
3715800
3722100
3731700
3743900
3755500
3766800
3775600
3783000
3796700
3809600
3816000
3825000
3831800
3840300
3855000
3863900
3870900
3877800
3886700
3893900
3898900
3912700
3922500
3933000
3943800
3958100
3964000
3970300
3975800
3983300
3990000
3998600
4007800
4030300
4037600
4044000
4059000
4068900
4077400
4083900
4091100
4095500
4114200
4121900
4128300
4133800
4143100
4149000
4164100
4173900
4181200
4188600
4201400
4206200
4212600
4222600
4233000
4241600
4248300
4254700
4264800
4283000
4295500
4301800
4308600
4323600
4329200
4335000
4339500
4346500
4359200
4364200
4370500
4377400
4387000
4395500
4410300
4428300
4442900
4449100
4466500
4481000
4488200
4499100
4509400
4521800
4527500
4535900
4542100
4550100
4556700
4562000
4569300
4585400
4590500
4597000
4603100
4611100
4622400
4632600
4637800
4647900
4653700
4660200
4680600
4705200
4712500
4720100
4731000
4739700
4745900
4752800
4771000
4783000
4788000
4801000
4812500
4817600
4823700
4829300
4842900
4859900
4874800
4882400
4893400
4898300
4904500
4911000
4924100
4929200
4951500
4959300
4963800
4979200
4986200
4995600
5001400
5009200
5023300
5034800
5046300
5060100
5069000
5094900
5101700
5108700
5130800
5140400
5160400
5170700
5182100
5187000
5193600
5210300
5216700
5222400
5227000
5238100
5249800
5257300
5266300
5275300
5287700
5293800
5304100
5317000
5329900
5336500
5345700
5357100
5367200
5372400
5379700
5386400
5393600
5400000
5406300
5412400
5418200
5426300
5432000
5437700
5443100
5452100
5463000
5472400
5484500
5500900
5509700
5515900
5529900
5543500
5554200
5571300
5580700
5594200
5601000
5608500
5618800
5628400
5644700
5651500
5659100
5664300
5680000
5685700
5698800
5707000
5713600
5724400
5745300
5750200
5763200
5769100
5775600
5788900
5796000
5807400
5821500
5828700
5839700
5850000
5856900
5875500
5884600
5896700
5901500
5912000
5918500
5933700
5945400
5956500
5965000
5970500
5976400
5983800
5997700
6005700
6019400
6038400
6048600
6054900
6060800
6067900
6079200
6084700
6090200
6097400
6107300
6123700
6137600
6142800
6147900
6157500
6165100
6173000
6182900
6198100
6207000
6217400
6223600
6230000
6243000
6253600
6260900
6272900
6282400
6288600
6299700
6324900
6331100
6345900
6353700
6360600
6368800
6380100
6390600
6412000
6424100
6431600
6438400
6447700
6453800
6462700
6468800
6474800
6493500
6500500
6510800
6516500
6532300
6541300
6549100
6564300
6571400
6586200
6593900
6603100
6610300
6616600
6629400
6639200
6648200
6656900
6666200
6674000
6689200
6702600
6711200
6719000
6733300
6747300
6752900
6768200
6773800
6779800
6804700
6816200
6821700
6828100
6835900
6856300
6870800
6889700
6897000
6902800
6914500
6922400
6939600
6951600
6963300
6972100
6982700
6991700
6998200
7006600
7015500
7022800
7034200
7039900
7054000
7071600
7079600
7090400
7104600
7118500
7124500
7137400
7146200
7154400
7162300
7174000
7182900
7188100
7199300
7219000
7224000
7233700
7244800
7253800
7269300
7284600
7290900
7295800
7310700
7326100
7346600
7357100
7367100
7382600
7389600
7409700
7417300
7427900
7441900
7451800
7460200
7466100
7476200
7483500
7492700
7504600
7511400
7531500
7547600
7556000
7561100
7567100
7583700
7595000
7603800
7609900
7616100
7622100
7631800
7646600
7659600
7670700
7676100
7690200
7702600
7707800
7724800
7735000
7740000
7747000
7753000
7762000
7768500
7781800
7788400
7798100
7804600
7815100
7826800
7832900
7839400
7852200
7859800
7865700
7874500
7888100
7897500
7903100
7908500
7919000
7938700
7950300
7957600
7963200
7981100
7988100
7994600
8002200
8017800
8029100
8040300
8050400
8055700
8063500
8076800
8083200
8088800
8094900
8102200
8114700
8128400
8134400
8140500
8149000
8162700
8170200
8177800
8183600
8197200
8213300
8228100
8244700
8254100
8265500
8270800
8279500
8285800
8298000
8314100
8325000
8337500
8351400
8366200
8378700
8385500
8399300
8414500
8428200
8434700
8443100
8450000
8458400
8470600
8486100
8492700
8499200
8506800
8514500
8523600
8541700
8556000
8562300
8568400
8574800
8582800
8597700
8612800
8619000
8625500
8631900
8641300
8659500
8665200
8678600
8693900
8700400
8706200
8716500
8735500
8756400
8762400
8767700
8775600
8783200
8790100
8801300
8811100
8824900
8831700
8842100
8850900
8873300
8879200
8893000
8903500
8909300
8925400
8930900
8936300
8949100
8955200
8964400
8992100
9002100
9007400
9012900
9021200
9039700
9048400
9056000
9062400
9068500
9079700
9107300
9115200
9123200
9130200
9135700
9150100
9155300
9160500
9169500
9176100
9198900
9211100
9220900
9232300
9240900
9248200
9261300
9272100
9278200
9287400
9303200
9316600
9328900
9345600
9351300
9359400
9367300
9377300
9389600
9397100
9405300
9420300
9430500
9443200
9449300
9461700
9475600
9482400
9488900
9505100
9515400
9522400
9533700
9547200
9557600
9563200
9588500
9604200
9611100
9620000
9634400
9646800
9653400
9663200
9675300
9693100
9698100
9703800
9708600
9735500
9749600
9764100
9774800
9782000
9790000
9796000
9808600
9817100
9823000
9829000
9844600
9849900
9854800
9860700
9878600
9885700
9901200
9920000
9925300
9934200
9940500
9948000
9959500
9970100
9979800
9995700


