# repro call number: 0
# mode: 2
# signal: 1
# stimulus file: /extra/setup/oel/stimuli/receptorInfo/gauss_st6_co200.dat
# carrier freq (kHz): 3
# stimulus length (msec): 1000
# pause between stimuli (msec): 700
# length of ramp (usec): 1000
# desired firing rate (Hz): 100
# standard deviation (dB): 6
# cut-off frequency (Hz): 200
# repetition number: 0
# duration (msec): 1000
# intensity (dB): 62.7632
5900
9100
14000
23800
27900
31500
39800
45600
50700
53500
59500
67700
76000
80100
85700
92500
106900
127500
143400
146200
148900
157900
175100
187300
197900
204100
210200
215700
219400
228800
254200
263500
271400
285200
296700
299500
304700
311300
337000
343200
351800
358100
361900
368700
371800
380200
385700
396600
399700
403900
417300
427100
429700
456300
461100
463700
467800
479600
482300
487600
496700
502600
529400
536900
547900
554400
556900
562400
568600
579300
583600
589600
595200
606100
612400
616400
625800
632500
636000
659400
673200
676300
682100
689400
703800
709700
715900
723200
732900
740300
742900
747700
757300
769600
775600
791600
794600
800900
805100
813300
827600
834800
847900
851400
856700
863800
867100
877600
881700
893400
903600
910900
928800
938000
958200
961200
972400
978600
1001600
1006700
1023600
1030300
1055600
1072200
1079600
1087000
1094500
1124700
1136900
1151800
1157100
1162200
1189000
1197400
1210900
1214400
1234200
1240200
1244600
1251600
1256000
1273300
1284400
1289200
1295100
1297700
1304400
1311800
1315100
1338400
1344000
1360000
1372300
1379100
1391700
1395300
1400400
1411700
1418400
1430400
1450700
1476900
1479600
1486900
1499500
1510500
1532300
1541700
1547000
1556100
1592700
1595400
1608800
1616300
1627700
1634400
1638700
1641400
1649600
1656800
1662300
1670200
1680300
1692600
1698200
1706200
1721800
1732900
1742200
1744600
1756300
1780700
1800400
1810100
1814100
1826800
1833400
1855800
1877500
1887900
1893500
1899400
1914500
1934500
1949200
1959800
1970200
1985400
2001600
2014400
2017300
2031400
2035000
2044800
2057000
2066100
2073300
2078300
2083700
2088200
2092200
2099300
2105100
2113800
2116500
2135000
2137500
2140600
2170900
2175200
2181600
2212900
2235300
2247900
2256100
2259000
2265000
2269000
2280100
2283000
2288300
2295300
2302200
2315300
2319700
2345500
2356300
2370400
2373200
2378800
2383100
2400500
2404000
2410900
2413800
2424300
2433800
2442000
2453500
2460100
2480900
2491600
2497200
2500100
2503800
2510400
2517100
2523800
2527100
2547800
2556400
2562900
2569900
2579400
2587400
2590500
2593500
2599100
2604900
2612700
2615600
2626200
2628800
2638000
2649400
2660200
2673400
2678300
2691900
2697500
2700900
2713500
2724200
2738600
2742100
2750000
2755200
2768100
2796300
2808500
2814200
2823500
2831200
2836900
2840600
2843700
2848900
2859200
2877900
2886000
2892300
2897700
2924900
2931400
2938500
2941200
2946900
2957400
2962900
2969000
2981100
2984300
3014100
3025400
3041200
3054400
3063700
3067200
3088400
3091000
3101600
3112100
3128200
3135100
3142300
3163700
3166600
3177100
3187100
3190100
3210600
3213700
3228900
3234900
3241000
3247800
3261800
3269200
3274700
3278600
3284200
3290400
3295800
3321200
3334700
3339000
3352500
3357300
3376000
3385100
3391500
3396200
3402000
3420900
3423600
3431300
3449600
3454800
3469300
3472400
3476900
3493200
3495700
3505900
3535400
3538400
3541400
3552600
3555300
3567700
3571700
3577600
3587900
3596700
3610600
3623600
3643500
3650000
3660800
3667400
3672500
3681500
3686800
3710400
3716100
3724400
3729800
3740100
3744800
3749900
3756000
3766700
3772300
3778500
3787300
3792700
3803400
3807700
3810200
3818100
3823400
3834000
3836800
3843400
3861800
3878200
3890200
3899500
3903500
3920400
3931500
3945500
3954100
3969000
3974900
4004700
4010400
4017600
4038500
4050100
4057900
4064200
4066700
4073100
4076400
4083500
4087800
4097500
4118600
4123500
4130400
4155600
4167000
4175400
4190700
4211000
4216900
4222700
4226700
4229100
4233500
4238600
4249900
4255200
4270600
4281900
4293400
4297800
4302100
4314200
4319200
4324700
4348800
4369500
4374400
4384300
4392200
4395800
4406200
4424400
4429200
4432500
4439600
4446600
4450100
4453700
4463600
4470200
4474300
4484200
4490200
4507200
4523600
4532600
4539300
4544300
4557000
4560800
4564400
4574400
4592000
4599400
4608300
4613200
4639700
4649500
4656300
4661900
4671300
4680000
4690700
4702600
4709700
4715100
4721500
4728400
4739800
4742300
4746400
4754300
4760700
4770400
4776900
4791500
4795800
4802900
4808200
4811200
4823100
4836200
4850500
4872800
4882500
4888400
4895100
4900900
4910100
4923800
4928100
4933100
4968600
4981900
4987600
4998100
5001600
5004200
5017700
5032100
5035200
5043900
5057500
5062200
5072900
5084800
5087800
5091600
5094500
5112200
5117500
5137200
5144900
5156700
5164000
5173800
5181400
5186700
5205400
5212400
5217600
5226500
5242700
5254900
5262900
5275400
5278200
5288000
5294200
5297500
5301300
5325200
5333200
5343700
5363900
5370700
5396000
5416000
5421400
5427400
5432900
5438300
5441200
5453400
5459000
5469200
5475800
5480900
5497200
5517300
5524000
5528900
5531700
5538400
5559400
5567500
5575200
5578100
5619300
5629700
5638400
5644000
5652800
5659700
5685800
5689100
5704300
5707100
5711600
5732200
5750700
5755200
5757700
5763700
5770400
5778700
5786100
5793000
5799300
5808900
5812200
5831000
5836100
5843100
5849100
5852500
5861500
5865700
5870700
5884700
5903300
5916600
5922200
5926300
5929600
5939300
5945100
5961300
6007600
6035700
6052100
6064700
6071700
6074900
6088200
6095800
6099400
6108300
6115800
6121400
6146700
6154300
6172100
6177800
6189700
6193200
6203900
6207100
6213100
6219700
6222700
6229900
6240400
6244800
6270400
6274400
6277000
6296900
6312500
6315200
6330300
6334800
6340400
6347200
6387500
6400300
6406700
6414000
6424100
6428100
6437500
6454500
6466100
6471900
6477800
6491300
6505300
6523100
6536000
6541200
6549300
6554600
6558800
6563800
6569800
6580400
6585500
6596100
6602800
6613700
6616900
6633400
6640700
6652400
6659100
6662300
6688300
6694200
6698800
6710500
6720900
6733600
6752600
6765300
6782000
6788300
6793800
6796300
6813200
6818100
6831700
6838600
6841400
6851400
6861800
6871400
6877500
6882200
6893400
6896000
6899700
6908800
6918400
6931400
6939600
6949100
6980800
6990700
7002100
7007700
7010800
7016500
7023100
7030600
7049800
7064500
7068600
7075700
7083700
7090500
7109700
7116800
7119900
7135600
7142100
7153500
7171600
7175600
7186100
7193000
7204300
7212100
7229800
7233400
7237900
7244300
7250100
7258500
7276900
7294800
7302300
7313100
7324000
7330900
7341800
7351200
7362300
7371100
7373700
7377600
7384100
7392700
7398400
7409400
7430500
7445300
7449200
7460600
7466400
7472700
7480600
7484300
7503300
7514800
7519600
7524900
7534400
7541000
7545300
7558800
7564000
7571700
7583800
7591900
7599000
7604700
7618300
7623600
7627900
7640900
7657500
7668100
7673800
7682200
7689200
7693500
7701600
7707200
7714100
7717700
7725700
7743500
7746700
7777700
7786100
7792100
7817600
7822900
7828500
7834600
7854200
7860100
7863700
7866500
7871300
7895800
7901000
7908500
7913000
7917200
7923800
7932900
7943100
7949500
7959000
7967800
7978700
7984400
8013900
8017900
8024000
8032100
8046300
8056300
8073100
8078300
8088800
8091400
8102300
8110700
8114500
8119900
8134700
8139400
8153000
8160500
8163200
8175700
8196500
8206000
8213200
8227600
8246900
8273300
8281800
8294400
8297100
8300300
8307800
8310900
8345600
8351700
8358800
8369200
8385300
8395200
8398900
8409600
8416900
8422000
8450600
8460500
8471800
8480500
8483500
8486200
8496500
8499200
8501900
8506200
8513900
8526700
8558300
8570000
8577700
8591600
8598500
8612700
8620500
8625400
8658800
8666300
8674300
8679900
8692100
8701900
8706800
8714500
8726600
8731800
8735100
8743600
8750900
8759000
8765500
8772700
8781500
8785000
8808800
8817400
8824000
8826700
8830400
8840000
8845900
8861800
8871500
8876400
8895700
8922300
8929100
8933600
8937000
8944900
8958500
8964800
8970300
8976900
8996100
9000400
9005700
9009500
9017100
9048400
9051800
9056700
9062300
9067300
9070900
9081900
9103000
9108500
9116600
9134600
9146700
9171000
9174300
9181200
9197100
9205800
9213400
9235000
9238400
9249400
9258100
9263000
9275600
9283300
9290000
9297000
9300700
9307400
9310100
9314900
9339200
9350100
9362600
9368500
9378000
9385200
9397800
9403600
9407900
9417000
9422000
9436700
9449900
9453600
9462800
9476800
9480100
9496300
9500000
9509800
9532900
9537400
9555600
9560300
9570400
9577900
9585600
9597900
9604800
9611900
9618800
9629600
9643800
9651400
9664400
9685200
9690000
9694600
9701900
9720100
9728200
9731100
9741000
9766200
9779700
9790000
9803400
9822600
9842500
9850300
9858800
9863400
9871900
9876500
9896900
9908400
9912800
9917700
9923800
9928500
9934700
9945300
9955500
9958200
9966700
9977600
9980200
9998400


