# repro call number: 0
# mode: 3
# signal: 1
# stimulus file: /extra/setup/oel/stimuli/receptorInfo/gauss_st6_co200.dat
# carrier freq (kHz): 3.5
# stimulus length (msec): 1000
# pause between stimuli (msec): 700
# length of ramp (usec): 1000
# desired firing rate (Hz): 100
# standard deviation (dB): 6
# cut-off frequency (Hz): 200
# repetition number: 0
# duration (msec): 1000
# intensity (dB): 96
4300
6000
11500
14100
22500
24200
27400
34600
43400
49200
57700
65400
78000
79800
83800
86500
90600
101900
115100
126200
134000
142800
144600
155900
181100
196100
207400
211200
215500
217300
224200
241600
258700
266400
282900
297800
302200
304700
310200
330600
336100
341600
349900
352000
359200
361000
366200
368000
370700
383800
394700
396400
402500
415600
417300
425400
427200
438000
453900
459000
460800
472000
477500
479300
481700
486100
494600
500700
511200
527300
546300
552500
554300
556100
561500
563400
581700
583700
608200
611900
613900
623600
625700
630400
632600
657200
669300
671500
673800
676300
680200
682000
688000
702100
714000
715800
722100
728000
738100
740000
757200
788200
790000
791700
798800
811200
820700
832400
846900
855700
862900
865500
871600
890500
901800
926700
936300
938400
956400
958300
970600
976300
1000100
1002100
1022000
1027700
1029500
1061600
1071400
1077600
1079300
1085200
1087100
1092800
1111300
1123000
1134000
1140800
1149900
1151800
1156000
1183000
1188800
1196000
1198000
1209100
1237500
1242400
1253400
1255300
1271200
1282600
1287800
1289700
1293800
1295600
1309500
1311400
1313900
1336400
1342600
1361400
1390400
1392200
1397100
1402800
1409400
1411600
1417300
1428000
1448700
1475500
1477300
1485100
1487000
1497300
1509600
1531000
1547000
1552300
1578200
1584600
1590500
1592300
1613300
1625500
1636900
1638700
1640500
1654200
1659500
1661600
1669600
1677000
1690200
1696700
1702500
1704400
1720200
1725000
1734800
1740400
1742600
1754400
1756200
1777600
1802600
1811500
1814600
1824400
1831700
1853600
1865800
1875300
1888100
1897100
1911900
1913800
1932000
1933800
1948000
1957700
1964100
1968600
1970900
2013400
2015300
2031200
2033200
2055800
2065500
2081000
2082800
2086300
2097600
2107300
2112200
2114000
2132700
2134500
2136400
2160300
2169300
2180000
2189900
2209900
2228800
2235100
2254200
2256000
2263500
2266300
2275000
2279000
2281100
2291800
2300600
2312100
2344100
2368800
2371000
2374700
2380500
2382700
2399500
2401300
2410400
2431600
2433700
2439800
2452400
2457700
2478400
2480500
2490200
2495800
2497700
2508900
2519700
2524800
2526600
2543200
2561000
2571800
2576300
2586100
2587900
2591600
2597600
2599400
2610600
2612900
2622400
2625200
2627200
2636200
2646900
2649000
2659900
2674300
2694900
2696700
2722000
2736800
2738600
2749400
2766100
2767900
2774500
2794000
2806600
2821400
2823300
2835100
2840100
2846500
2857400
2876700
2887900
2894100
2911900
2923700
2935200
2937100
2939000
2945400
2955000
2957500
2966500
2980500
3001700
3012400
3023800
3025800
3042300
3052200
3062900
3087100
3088900
3100700
3119800
3131400
3135300
3150700
3162000
3164200
3185000
3187000
3197800
3210000
3212200
3227000
3233300
3258600
3268100
3276100
3287400
3294400
3336200
3348400
3365000
3372900
3382200
3387800
3397200
3399900
3421000
3428200
3448500
3453300
3455500
3468100
3474000
3487500
3492000
3494000
3505700
3516400
3535900
3537600
3543100
3551100
3553200
3568700
3593600
3607100
3609400
3618500
3640200
3649500
3670700
3684600
3686500
3711300
3722200
3744200
3748000
3753300
3755300
3763900
3769300
3791800
3800800
3806100
3808000
3818000
3833700
3835600
3841200
3843700
3857700
3875800
3878000
3888900
3897600
3899800
3918400
3920500
3929500
3953700
3967700
3983200
4002000
4003800
4008700
4010500
4041800
4056000
4061600
4063500
4065200
4070700
4074700
4082500
4085600
4087500
4103200
4130000
4167800
4174300
4188300
4190200
4192000
4214400
4222400
4225300
4227300
4231600
4236600
4248500
4250500
4261700
4278900
4295500
4297400
4302400
4312400
4314200
4319400
4323300
4329300
4345500
4368300
4378200
4390400
4392400
4399200
4404400
4411500
4423000
4429200
4444500
4451800
4462000
4476900
4483400
4488100
4505300
4507100
4521700
4532000
4537000
4544100
4555300
4557400
4561900
4584800
4596700
4598800
4637700
4648300
4662500
4669800
4672100
4683500
4695100
4707300
4712500
4715100
4726400
4737000
4738900
4741600
4769700
4789300
4793700
4801100
4806400
4808200
4849000
4868900
4880000
4882000
4898000
4922500
4925000
4930800
4979600
4987800
4993200
4999400
5001200
5017200
5029800
5031600
5033800
5056000
5057800
5060200
5071600
5081700
5085900
5087900
5091300
5093100
5109600
5111900
5130400
5135300
5142900
5153300
5156000
5163900
5170800
5180000
5191900
5197300
5204000
5210000
5215100
5222200
5242600
5262000
5275000
5277400
5283700
5291300
5300700
5323800
5331200
5345600
5359200
5362400
5369300
5383800
5393200
5418600
5430700
5435400
5437900
5451000
5457100
5458900
5468400
5473500
5475400
5480800
5494800
5510200
5515600
5527300
5529300
5558000
5565500
5572300
5575100
5577300
5601800
5631400
5642000
5644400
5652400
5659400
5677100
5686000
5688400
5702500
5704200
5709700
5728300
5753200
5754900
5761400
5768700
5771000
5784600
5799700
5806900
5826700
5831400
5841200
5847400
5849200
5860500
5868800
5883100
5897100
5913800
5919300
5924500
5926400
5936300
5959000
5961200
5990500
6005700
6026900
6034100
6053900
6063100
6070800
6092700
6094500
6106700
6118300
6120300
6146600
6159900
6188200
6190200
6197100
6204100
6206000
6218200
6220500
6246100
6268400
6271300
6273200
6275000
6293800
6311100
6313100
6328900
6333600
6335500
6346500
6379500
6399100
6404800
6410700
6423200
6425200
6434600
6441300
6463900
6469400
6471300
6476500
6502500
6505600
6531200
6540700
6547100
6556200
6568300
6575600
6582000
6595700
6612100
6614900
6632300
6634400
6639900
6653000
6656700
6675000
6685000
6691700
6708100
6718000
6755200
6762400
6764700
6779600
6786200
6788600
6793300
6796300
6807300
6812300
6830800
6837400
6839400
6849100
6851700
6869400
6876300
6893300
6895500
6906100
6908800
6916900
6929500
6938500
6972500
6979500
7003600
7006900
7014000
7020700
7061800
7066600
7073700
7100200
7125300
7139300
7149900
7169800
7171800
7191000
7201800
7207600
7228300
7234300
7241800
7244100
7248500
7253700
7258800
7278100
7284300
7300000
7312300
7322900
7339900
7344800
7349400
7360700
7363200
7369600
7372000
7406100
7416900
7419100
7443400
7463700
7470600
7478800
7486000
7501200
7512900
7517500
7522900
7525000
7532600
7539000
7544100
7550900
7556300
7558500
7562600
7575200
7590800
7592700
7598300
7619000
7625700
7639000
7641200
7655000
7664500
7684200
7700600
7705000
7712100
7714300
7719600
7724900
7744900
7752200
7779100
7784200
7815400
7820800
7827000
7853000
7858000
7860800
7863400
7865400
7870100
7894900
7911900
7915600
7920700
7931000
7942300
7952600
7964800
7971300
7978500
7982300
8012500
8014600
8022600
8024600
8044200
8053600
8079300
8087300
8089300
8100500
8126500
8139000
8150500
8157900
8168100
8174300
8194000
8203800
8206100
8215400
8226900
8244100
8246000
8271000
8292100
8294000
8303000
8306400
8308300
8330100
8344500
8350600
8356500
8358500
8367000
8383000
8388600
8393300
8395200
8416500
8419900
8456400
8476700
8481700
8483700
8495700
8497500
8499400
8523800
8550800
8566500
8568600
8588800
8590600
8611500
8618500
8623100
8636400
8656800
8664200
8666200
8677700
8679900
8690300
8699600
8712400
8722000
8730900
8742300
8749000
8751000
8763900
8779100
8781000
8782900
8808100
8821900
8823900
8829200
8839300
8858600
8864800
8915700
8921100
8928200
8934600
8943400
8961900
8968300
8994800
8996900
9002700
9004600
9015500
9036900
9046900
9048700
9058900
9064500
9067600
9069700
9079900
9107300
9114400
9116500
9132000
9147400
9174900
9178700
9181600
9195800
9198600
9204900
9206800
9213000
9233800
9238500
9246900
9249200
9256300
9263200
9273700
9284100
9286700
9295900
9305600
9307700
9309600
9336800
9346400
9349100
9366100
9368700
9384700
9395300
9401100
9407000
9418100
9420100
9422100
9434600
9448700
9451100
9460700
9462800
9475100
9477100
9490500
9516200
9530500
9560900
9576900
9585200
9596100
9608700
9616400
9618400
9627900
9642200
9644100
9662800
9679300
9684300
9692200
9727100
9729000
9739000
9764800
9778900
9792600
9819900
9821700
9846100
9857400
9873500
9909400
9911600
9920400
9925500
9928600
9942500
9945400
9954000
9962000
9975100
9976900
9996200


