# repro call number: 0
# mode: 2
# signal: 1
# stimulus file: /extra/setup/oel/stimuli/receptorInfo/gauss_st6_co200.dat
# carrier freq (kHz): 3.53553
# stimulus length (msec): 1000
# pause between stimuli (msec): 700
# length of ramp (usec): 1000
# desired firing rate (Hz): 100
# standard deviation (dB): 6
# cut-off frequency (Hz): 200
# repetition number: 0
# duration (msec): 1000
# intensity (dB): 83.2895
5400
8200
11600
14300
23400
26400
29900
35900
39200
45700
50700
57800
60900
66700
73900
79400
85200
91800
103200
116800
127700
134600
144300
147300
157100
170000
180800
187400
197500
200700
207900
211300
215700
218800
228300
242900
254000
259000
267900
283800
287000
297600
300900
304300
310700
333300
338200
342800
346000
351700
360800
367600
371200
383300
386700
396300
399800
403600
411200
417400
426500
440100
454700
460100
463200
467700
473200
479200
486500
495500
502300
527900
535300
546700
553100
556100
562800
582100
585300
589400
594200
605500
610300
613900
624100
628900
633200
657900
668100
672000
675200
681600
688500
703200
710700
715300
722600
728800
739400
742500
753000
758000
768600
775200
789200
792600
799800
812100
821700
827500
833800
848000
856100
859500
864500
868100
882400
892000
902700
914000
923400
929300
934900
938800
956100
959700
966500
971000
977600
1001400
1007500
1022900
1028700
1055500
1064100
1069000
1074100
1079400
1087000
1094500
1115500
1127500
1133700
1142400
1146600
1151500
1154700
1158400
1175400
1185100
1190700
1198000
1205500
1210900
1222800
1233400
1238600
1243900
1254600
1266500
1273600
1284100
1289300
1295200
1305100
1310400
1313600
1317200
1325100
1337300
1343000
1363300
1377600
1382900
1391800
1398000
1404300
1410800
1414100
1418900
1429900
1445000
1450300
1465400
1476800
1486600
1494900
1499900
1509800
1530900
1541900
1548200
1553500
1579500
1587900
1592200
1595500
1609200
1616000
1626800
1635100
1638800
1642900
1655700
1660200
1670400
1677600
1691500
1704100
1714100
1720800
1732200
1736000
1741800
1755600
1768600
1778900
1786700
1799500
1813000
1824800
1833400
1842000
1854700
1876500
1890000
1898600
1913700
1933800
1949200
1959800
1965400
1970100
2000100
2015300
2030800
2034100
2046100
2052200
2057300
2065900
2072200
2078100
2083200
2087500
2098500
2104100
2109500
2114300
2134100
2138100
2160700
2170100
2181000
2184900
2190900
2210600
2230500
2235200
2240600
2246000
2255500
2265000
2277400
2280800
2293400
2301700
2312400
2317300
2339600
2345400
2357900
2370400
2376300
2382600
2391900
2400100
2403600
2411800
2433000
2440900
2452600
2458700
2479800
2491200
2497300
2510600
2520200
2526300
2561700
2572500
2577900
2587300
2593500
2599300
2607000
2612100
2624500
2628000
2638600
2648200
2656400
2661000
2673600
2691100
2696500
2699900
2714300
2724100
2738300
2741900
2749100
2755200
2762500
2768700
2775000
2795800
2808100
2815600
2822300
2825700
2836500
2841500
2847300
2859300
2870800
2877400
2885700
2891000
2895600
2902500
2913500
2931000
2936200
2939900
2946100
2955500
2960000
2967900
2980100
2983800
2996400
3013100
3025500
3038800
3043000
3053900
3061100
3080700
3088700
3096100
3101600
3112200
3121400
3133400
3152600
3162500
3166600
3173100
3187300
3199200
3211300
3228300
3234100
3242700
3247100
3260700
3270000
3277600
3285400
3289900
3295400
3320700
3337500
3349400
3355300
3366800
3375200
3383400
3390300
3399300
3403000
3422300
3429600
3449100
3454500
3469600
3475900
3481800
3493200
3505500
3511500
3516000
3536900
3540400
3545800
3552600
3568500
3577900
3586900
3596100
3608500
3619600
3641500
3648500
3659500
3672300
3683900
3687500
3711800
3722400
3729400
3744300
3749500
3755000
3766200
3770800
3784800
3792800
3801600
3807800
3819100
3833800
3838300
3843300
3860700
3877400
3884400
3890500
3898600
3903000
3920100
3931000
3947700
3955200
3973300
3990300
4001900
4006200
4011800
4042700
4050000
4063000
4067000
4072500
4083900
4087900
4096500
4103400
4117100
4131200
4143300
4163300
4169000
4175200
4190100
4202800
4212200
4216900
4225300
4228700
4233400
4238300
4249800
4261800
4266500
4281000
4292400
4297200
4303800
4313900
4320700
4325300
4330900
4347500
4372200
4391300
4394600
4400600
4405800
4413900
4424600
4430100
4440100
4446500
4452900
4463300
4468900
4473900
4485100
4489700
4502000
4507500
4522200
4534200
4539200
4556300
4563200
4589500
4593900
4598800
4610100
4625500
4639400
4650500
4661700
4670700
4682600
4697100
4707600
4713900
4728400
4738700
4743900
4747500
4754400
4760100
4790400
4795100
4802100
4807700
4822200
4833600
4846500
4852000
4870800
4881500
4885600
4894400
4899300
4909100
4923700
4932800
4966400
4979800
4987600
4995700
5001000
5016200
5023400
5032100
5035600
5057000
5060900
5073000
5082600
5087800
5092500
5110300
5115400
5132200
5137600
5144300
5155200
5159700
5166000
5173100
5182500
5205100
5211200
5222600
5242600
5246500
5255400
5275900
5284700
5293700
5300300
5304800
5325100
5332800
5347200
5354700
5360500
5364600
5371100
5385900
5395500
5419700
5432000
5437400
5447500
5452600
5458800
5468400
5475400
5480800
5495800
5512000
5518700
5528500
5539900
5559800
5567300
5574600
5579200
5589600
5620800
5634200
5643900
5652600
5660900
5671400
5680100
5687000
5691700
5704000
5711400
5729700
5750600
5755500
5762600
5770600
5784200
5792000
5800000
5803500
5808300
5827300
5832700
5841800
5849000
5861200
5867700
5872700
5884100
5898000
5905600
5915700
5921700
5926500
5938400
5944700
5960300
5990400
6007200
6029100
6035700
6050800
6056200
6064200
6072300
6088300
6094700
6100700
6108700
6120200
6143400
6160300
6188500
6191700
6198800
6205600
6219300
6242100
6247300
6255200
6268300
6273700
6295400
6302500
6312800
6329100
6335200
6343600
6348400
6370600
6381100
6399900
6411200
6416500
6423800
6427300
6436400
6443100
6466500
6471800
6477700
6503900
6508800
6523000
6533800
6543000
6548800
6557300
6562600
6569900
6577400
6596500
6612900
6617700
6629800
6634900
6641400
6654100
6659300
6686600
6693800
6700200
6709600
6719400
6733000
6751400
6764500
6781600
6787200
6793200
6797300
6803200
6809400
6814200
6832700
6839200
6850600
6862400
6870800
6877300
6894300
6907800
6919800
6930300
6936100
6941200
6960700
6974200
6981300
6989400
7000700
7008000
7015500
7022300
7027900
7063700
7068900
7075400
7091500
7110900
7118800
7127000
7140800
7151700
7158300
7171700
7176100
7192400
7204100
7209300
7230000
7236300
7243300
7249900
7255800
7259700
7300200
7313900
7322800
7326500
7340800
7347400
7351600
7362200
7370800
7374900
7393400
7405600
7418200
7450700
7465600
7479600
7487300
7498600
7503800
7514700
7520000
7524900
7532700
7540100
7546200
7552800
7558000
7564700
7576500
7587900
7593000
7600300
7614900
7620500
7627800
7639800
7648400
7659100
7665800
7672600
7686300
7691900
7700100
7706900
7713700
7721900
7726700
7745600
7753600
7781700
7786700
7792100
7817400
7822300
7829400
7834500
7855000
7859900
7864300
7871800
7884200
7897000
7901700
7913200
7917400
7922200
7932400
7943300
7949800
7958300
7967000
7974400
7984600
7994800
8013900
8023400
8046300
8054100
8063100
8074200
8082400
8089000
8102100
8107700
8119700
8128000
8136100
8141400
8151900
8160000
8169900
8176500
8196000
8205200
8215600
8228600
8240700
8246500
8260800
8273100
8293500
8303500
8308500
8323600
8331400
8345300
8352000
8358500
8369100
8385100
8389800
8395300
8411600
8416800
8457700
8477100
8483500
8496900
8500700
8506100
8513400
8522300
8536800
8555300
8568300
8576400
8590200
8606200
8613200
8624200
8637400
8657600
8666000
8679500
8691300
8700400
8707800
8713200
8723400
8732200
8743600
8750500
8765000
8772500
8780900
8815500
8823000
8827300
8840500
8845400
8860600
8866600
8873700
8890000
8895900
8917700
8923500
8929200
8935100
8945500
8958300
8964100
8970400
8996600
9004400
9009000
9017400
9031300
9040300
9048400
9054900
9060900
9065800
9069800
9081900
9108100
9116200
9120400
9147500
9176400
9181400
9194000
9199300
9206900
9213700
9235300
9240000
9249200
9257500
9266100
9275000
9286000
9291600
9297600
9307100
9311000
9338300
9348700
9368400
9376800
9386500
9397200
9407400
9420500
9425100
9435400
9450000
9462500
9475800
9479400
9492000
9516500
9533600
9542300
9555900
9563600
9577600
9586700
9596400
9600100
9611600
9618300
9628100
9634200
9644100
9664900
9682200
9686700
9693100
9711000
9720100
9728500
9737000
9741300
9767700
9778400
9792600
9821800
9846200
9859400
9874900
9897600
9911700
9916000
9923100
9928300
9934300
9944600
9955300
9963500
9976500
9997800


