# repro call number: 0
# mode: 2
# signal: 2
# stimulus file: /extra/setup/oel/stimuli/receptorInfo/gauss_st3_co200.dat
# carrier freq (kHz): 5
# stimulus length (msec): 1000
# pause between stimuli (msec): 450
# length of ramp (usec): 1000
# desired firing rate (Hz): 100
# standard deviation (dB): 3
# cut-off frequency (Hz): 200
# repetition number: 0
# duration (msec): 1000
# intensity (dB): 81.3333
10200
14700
20700
26300
32100
39700
48100
55400
72100
77000
81000
85800
92300
101700
108400
121000
129700
136600
144300
151200
159300
167100
178100
183400
189700
195100
207000
213500
219300
228500
236400
244400
249900
261000
269700
277400
285200
293400
302400
308400
312400
321600
331500
338000
354200
368600
376100
381900
390800
396300
401500
407100
413100
417100
422600
429500
448000
461000
468000
475300
485500
491000
501700
511700
523400
532900
545500
554100
560800
570400
587300
598500
605900
614300
621500
627500
636700
644300
654300
660700
669600
675700
694100
702000
710000
717400
731400
739400
749200
757900
765900
772100
779800
785200
792300
805800
815400
827400
837700
843600
859900
867100
874700
884500
909600
922000
937300
952700
957100
962600
977500
984600
994800
999900
1010100
1018200
1028100
1035000
1043500
1048400
1060900
1068600
1078500
1084700
1090000
1102700
1111000
1116600
1123800
1134600
1142000
1153000
1161500
1168400
1177000
1183000
1189100
1197300
1212300
1219800
1226900
1234400
1242300
1256900
1263900
1271400
1279400
1285500
1300000
1304200
1317200
1330700
1342100
1346900
1353500
1361700
1369400
1377100
1385300
1390500
1399200
1408000
1413300
1420500
1426000
1439800
1446300
1452300
1462500
1471300
1478600
1493200
1501300
1505100
1512400
1520200
1525500
1532200
1544000
1550900
1557600
1568700
1578700
1587300
1596900
1604100
1610400
1617400
1630200
1642900
1648000
1657700
1663800
1670400
1680600
1686200
1694600
1700500
1716400
1726300
1739200
1747600
1760500
1768800
1775000
1780400
1794500
1798900
1805600
1810800
1829800
1844700
1849500
1857100
1862600
1869000
1874500
1884200
1890700
1898600
1904100
1912200
1916100
1930900
1938300
1947500
1959700
1968900
1975400
1987700
1998300
2005100
2014200
2021900
2028500
2037400
2048800
2054400
2063200
2075800
2086800
2092400
2105800
2116200
2132000
2141300
2149700
2156900
2166300
2176100
2182800
2188200
2199000
2208400
2214700
2224300
2236800
2248300
2257200
2266300
2273700
2283700
2294100
2306200
2312000
2319300
2326700
2338200
2344900
2350100
2376500
2390600
2397200
2410100
2420500
2430600
2436100
2452400
2462000
2479600
2491600
2501100
2511300
2516900
2534900
2544000
2550600
2558500
2565600
2575800
2590800
2594700
2602000
2613600
2620900
2629800
2637800
2646700
2652200
2664100
2671300
2678400
2689700
2695000
2701300
2718400
2724400
2736000
2741900
2756500
2765600
2778900
2792600
2809000
2820400
2830900
2838800
2844000
2851300
2857300
2867900
2882100
2887800
2894300
2903200
2910100
2921500
2936800
2944100
2952800
2965600
2972500
2993900
3000800
3008700
3018300
3031300
3036700
3047000
3053400
3061400
3067100
3075500
3083600
3100500
3108700
3122600
3131100
3137200
3146500
3155200
3170200
3178700
3183500
3204200
3214900
3219600
3228300
3245800
3252600
3258100
3268900
3281100
3291600
3302700
3322100
3330300
3340100
3348100
3358000
3369600
3394100
3399900
3406100
3411500
3418300
3425100
3433300
3443100
3448400
3464400
3473300
3486800
3498900
3506800
3515000
3519400
3527500
3535200
3552600
3560100
3568300
3578700
3583000
3589900
3599200
3613200
3623400
3640200
3645700
3659200
3670200
3677400
3685600
3689900
3696200
3708200
3720900
3731000
3740100
3748400
3755800
3766700
3774400
3782600
3789800
3795800
3813800
3823100
3831700
3839900
3853400
3861000
3870400
3881900
3892700
3913200
3922200
3930400
3944800
3958200
3969300
3973200
3981200
3989000
3996700
4008600
4019100
4030300
4035800
4044100
4052100
4058500
4068300
4080300
4085200
4094600
4102600
4113900
4124900
4137900
4148000
4152600
4163700
4173900
4186500
4197000
4202500
4208200
4220000
4228400
4235800
4244700
4248600
4256100
4261600
4273400
4283600
4291400
4301400
4310800
4319700
4328000
4335500
4339700
4347000
4358000
4363400
4369300
4375600
4384900
4394100
4409600
4427200
4439500
4445900
4456100
4464600
4470400
4482700
4492400
4499100
4507100
4521300
4527600
4535600
4542600
4555500
4561600
4568900
4575300
4586100
4590000
4600500
4607700
4616400
4624800
4631200
4637100
4647500
4654600
4660900
4675600
4704600
4712800
4725500
4732600
4739400
4745700
4751900
4769500
4775100
4784600
4795700
4802500
4811700
4817200
4823700
4834300
4841800
4848000
4859300
4873700
4886100
4896200
4903100
4910500
4922000
4930000
4940100
4953000
4958000
4975600
4985300
5000100
5005500
5015100
5022700
5033900
5046500
5060200
5067900
5072100
5090200
5095300
5100000
5108400
5117300
5130900
5140200
5152800
5159700
5168800
5175800
5186700
5198100
5209600
5217700
5226100
5243300
5250200
5259800
5268200
5275600
5285000
5293900
5305300
5322800
5335200
5345300
5356400
5363800
5372900
5381000
5389200
5393600
5405200
5413200
5425700
5434600
5446600
5455300
5469700
5475300
5484000
5494100
5503900
5515300
5528000
5540100
5553300
5571100
5580100
5588500
5599500
5608000
5617900
5629100
5639800
5646000
5661200
5667800
5672800
5681300
5688200
5696100
5706600
5713300
5724200
5735000
5747500
5759700
5766600
5775100
5785500
5796600
5810500
5826800
5832800
5839300
5849700
5857600
5874900
5881500
5892200
5898500
5904900
5912200
5930200
5940100
5954800
5969300
5975600
5990300
6000800
6014600
6028200
6039200
6054200
6060800
6066600
6083400
6089300
6100800
6107000
6115800
6128500
6136300
6142300
6153100
6164000
6174700
6181900
6192000
6198500
6205500
6214300
6221800
6228800
6241900
6252500
6263800
6280600
6286600
6298500
6303600
6324100
6330500
6334200
6345200
6358300
6369900
6380600
6390700
6404900
6411400
6418600
6424100
6431100
6437200
6446800
6463900
6470500
6476200
6483200
6492600
6499700
6509200
6531000
6540900
6559500
6567500
6573600
6583700
6593600
6602200
6615100
6631300
6638400
6646900
6651900
6661000
6667100
6672800
6685900
6692900
6700200
6710500
6715800
6732400
6746400
6752300
6758100
6771800
6782600
6793300
6804700
6814700
6820800
6827500
6836200
6846700
6857200
6870100
6894300
6901200
6911800
6922400
6939600
6947400
6958500
6964000
6974300
6981500
6988300
6992300
7001300
7010800
7017100
7028900
7034900
7054900
7066700
7078700
7090700
7104800
7117500
7123600
7135900
7144400
7152800
7161500
7173300
7182600
7188100
7197800
7201300
7220800
7233200
7251900
7265600
7270000
7287600
7292300
7309400
7321500
7327300
7333400
7344900
7351900
7378200
7383300
7396900
7409500
7418000
7426600
7440900
7451200
7457200
7465900
7475400
7483100
7491800
7502700
7512000
7525300
7531500
7535700
7544000
7555000
7566000
7574100
7582900
7592400
7600600
7604500
7615700
7622400
7631400
7641200
7652700
7664800
7675400
7690000
7697900
7712200
7724900
7739000
7747000
7752300
7761200
7769100
7779700
7786300
7796800
7804900
7814100
7825700
7832900
7840900
7857900
7865200
7874200
7882000
7891200
7901800
7908400
7918600
7932500
7943400
7954700
7963700
7976800
7985800
7995700
8003600
8017400
8027700
8042800
8051700
8065900
8078900
8087900
8094000
8103900
8114900
8123800
8129800
8140600
8149400
8156900
8168700
8176600
8183700
8195300
8202200
8211900
8220600
8227500
8233000
8241700
8252000
8259300
8266800
8276500
8284600
8295700
8302800
8319600
8333500
8341900
8351500
8367700
8377900
8386500
8398700
8406600
8413400
8423400
8431400
8442700
8452200
8459100
8469000
8478300
8489000
8498200
8509400
8514600
8522300
8528800
8541500
8551900
8561500
8569500
8574600
8591500
8611200
8618200
8630200
8636900
8642100
8656200
8661600
8668600
8681700
8696900
8704900
8715300
8725100
8734600
8745100
8760400
8781600
8789200
8801500
8809900
8819100
8838800
8844600
8852000
8873200
8879400
8891400
8902300
8909400
8915900
8927100
8934600
8956400
8964100
8979700
8991200
9001700
9007200
9012700
9025000
9037800
9044900
9053900
9061400
9067300
9079400
9086700
9106000
9118100
9123400
9132000
9154300
9159300
9166800
9174800
9197400
9219100
9227300
9239100
9250000
9260700
9266800
9274200
9286900
9302900
9316500
9326000
9339100
9345900
9351800
9358900
9366700
9376400
9387100
9396100
9404200
9414200
9426600
9431700
9448100
9459000
9475000
9481000
9488900
9503600
9513800
9521000
9528000
9546500
9559000
9588700
9602900
9610700
9614700
9623600
9628300
9634800
9641800
9657800
9663500
9669400
9677400
9695200
9702500
9710500
9733200
9747500
9759100
9765200
9774400
9780700
9789900
9795200
9807400
9822300
9827600
9842700
9850800
9861300
9877000
9885300
9891800
9902400
9912000
9921600
9927700
9934200
9940300
9950100
9958500
9967300
9976000
9981100
9995600


